# f (Hz), Re{G(jw)}, Im{G(jw)}
0.10000000,0.00001460,0.00088796
0.20000000,0.00001610,0.00178080
0.30000000,0.00002180,0.00267389
0.40000000,0.00003004,0.00356618
0.50000000,0.00003983,0.00445439
0.60000000,0.00006971,0.00532658
0.70000000,0.00010900,0.00624992
0.80000000,0.00012063,0.00715098
0.90000000,0.00014677,0.00802953
1.00000000,0.00022037,0.00895100
1.10000000,0.00023324,0.00986842
1.20000000,0.00027594,0.01074561
1.30000000,0.00035902,0.01169826
1.40000000,0.00037639,0.01261212
1.50000000,0.00047456,0.01350048
1.60000000,0.00051868,0.01448611
1.70000000,0.00056879,0.01537608
1.80000000,0.00069336,0.01636311
1.90000000,0.00071546,0.01729469
2.00000000,0.00087362,0.01823308
2.10000000,0.00089713,0.01923620
2.20000000,0.00103465,0.02013870
2.30000000,0.00110815,0.02120370
2.40000000,0.00121336,0.02210639
2.50000000,0.00134663,0.02320015
2.60000000,0.00142718,0.02412131
2.70000000,0.00161016,0.02523004
2.80000000,0.00167454,0.02617676
2.90000000,0.00189706,0.02730041
3.00000000,0.00195376,0.02827351
3.10000000,0.00220751,0.02941990
3.20000000,0.00226540,0.03041420
3.30000000,0.00254289,0.03159577
3.40000000,0.00261260,0.03260232
3.50000000,0.00290397,0.03383317
3.60000000,0.00300099,0.03484186
3.70000000,0.00329171,0.03613393
3.80000000,0.00343974,0.03713941
3.90000000,0.00370840,0.03849756
4.00000000,0.00394104,0.03950810
4.10000000,0.00416049,0.04092246
4.20000000,0.00451340,0.04197390
4.30000000,0.00465905,0.04340773
4.40000000,0.00514052,0.04457213
4.50000000,0.00521975,0.04595501
4.60000000,0.00577401,0.04730601
4.70000000,0.00586797,0.04857103
4.80000000,0.00639383,0.05012179
4.90000000,0.00664125,0.05128098
5.00000000,0.00704624,0.05297656
5.10000000,0.00756413,0.05416554
5.20000000,0.00779027,0.05587319
5.30000000,0.00853542,0.05731876
5.40000000,0.00868107,0.05883505
5.50000000,0.00941673,0.06061961
5.60000000,0.00979190,0.06192200
5.70000000,0.01032007,0.06391256
5.80000000,0.01113063,0.06531909
5.90000000,0.01139957,0.06722086
6.00000000,0.01240352,0.06908841
6.10000000,0.01277179,0.07062835
6.20000000,0.01357342,0.07286724
6.30000000,0.01451293,0.07437747
6.40000000,0.01495312,0.07659214
6.50000000,0.01622879,0.07867053
6.60000000,0.01674987,0.08040996
6.70000000,0.01777561,0.08296790
6.80000000,0.01905126,0.08470438
6.90000000,0.01963900,0.08715406
7.00000000,0.02122597,0.08964464
7.10000000,0.02213295,0.09149683
7.20000000,0.02330880,0.09444522
7.30000000,0.02516563,0.09663597
7.40000000,0.02597486,0.09913795
7.50000000,0.02784195,0.10223727
7.60000000,0.02957916,0.10427970
7.70000000,0.03082370,0.10750713
7.80000000,0.03331665,0.11052208
7.90000000,0.03486336,0.11285976
8.00000000,0.03686702,0.11657953
8.10000000,0.03982380,0.11938886
8.20000000,0.04146562,0.12237173
8.30000000,0.04435556,0.12636847
8.40000000,0.04761214,0.12902667
8.50000000,0.04976739,0.13275701
8.60000000,0.05362797,0.13688398
8.70000000,0.05716863,0.13957230
8.80000000,0.06021327,0.14396421
8.90000000,0.06515130,0.14810981
9.00000000,0.06914849,0.15099037
9.10000000,0.07339312,0.15588533
9.20000000,0.07957256,0.15994399
9.30000000,0.08434555,0.16306032
9.40000000,0.09009310,0.16826412
9.50000000,0.09776881,0.17209577
9.60000000,0.10373246,0.17530705
9.70000000,0.11132641,0.18054976
9.80000000,0.12086668,0.18389785
9.90000000,0.12849183,0.18682864
10.00000000,0.13832287,0.19166543
10.10000000,0.15017895,0.19404704
10.20000000,0.15994330,0.19597942
10.30000000,0.17237289,0.19965287
10.40000000,0.18696985,0.20020496
10.50000000,0.19920428,0.19994429
10.60000000,0.21436044,0.20123022
10.70000000,0.23179511,0.19858554
10.80000000,0.24636933,0.19436393
10.90000000,0.26368794,0.19150870
11.00000000,0.28318345,0.18384811
11.10000000,0.29893138,0.17354112
11.20000000,0.31649162,0.16462242
11.30000000,0.33573510,0.15030273
11.40000000,0.34993697,0.13236486
11.50000000,0.36409804,0.11642422
11.60000000,0.37917691,0.09540901
11.70000000,0.38799349,0.07053555
11.80000000,0.39440399,0.04910344
11.90000000,0.40140572,0.02432496
12.00000000,0.40196506,-0.00358029
12.10000000,0.39821500,-0.02640876
12.20000000,0.39583163,-0.04979647
12.30000000,0.38844015,-0.07530310
12.40000000,0.37597656,-0.09524691
12.50000000,0.36621616,-0.11285578
12.60000000,0.35400413,-0.13212395
12.70000000,0.33701659,-0.14713877
12.80000000,0.32317001,-0.15753622
12.90000000,0.30968833,-0.16960933
13.00000000,0.29248392,-0.17975956
13.10000000,0.27709127,-0.18430372
13.20000000,0.26457314,-0.19007504
13.30000000,0.24979420,-0.19614566
13.40000000,0.23455757,-0.19751433
13.50000000,0.22358039,-0.19841997
13.60000000,0.21204191,-0.20117658
13.70000000,0.19855580,-0.20159587
13.80000000,0.18845711,-0.19931952
13.90000000,0.17986234,-0.19937119
14.00000000,0.16932953,-0.19949425
14.10000000,0.15947333,-0.19627720
14.20000000,0.15288014,-0.19398753
14.30000000,0.14541638,-0.19344323
14.40000000,0.13651776,-0.19115145
14.50000000,0.13043043,-0.18720330
14.60000000,0.12538620,-0.18552929
14.70000000,0.11866143,-0.18419711
14.80000000,0.11215222,-0.18039633
14.90000000,0.10837455,-0.17724405
15.00000000,0.10398427,-0.17589418
15.10000000,0.09810530,-0.17364076
15.20000000,0.09395673,-0.16960578
15.30000000,0.09123259,-0.16738201
15.40000000,0.08719507,-0.16605227
15.50000000,0.08244310,-0.16305644
15.60000000,0.07996065,-0.15958680
15.70000000,0.07767607,-0.15799622
15.80000000,0.07394520,-0.15649587
15.90000000,0.07042347,-0.15316928
16.00000000,0.06890086,-0.15045602
16.10000000,0.06682841,-0.14923373
16.20000000,0.06345471,-0.14751069
16.30000000,0.06100944,-0.14423766
16.40000000,0.05998550,-0.14216409
16.50000000,0.05805319,-0.14114477
16.60000000,0.05508803,-0.13924085
16.70000000,0.05345327,-0.13623579
16.80000000,0.05269938,-0.13462794
16.90000000,0.05090061,-0.13372539
17.00000000,0.04834970,-0.13175103
17.10000000,0.04725860,-0.12905857
17.20000000,0.04667441,-0.12776816
17.30000000,0.04502585,-0.12695591
17.40000000,0.04283660,-0.12500222
17.50000000,0.04209285,-0.12259092
17.60000000,0.04164766,-0.12151590
17.70000000,0.04017229,-0.12078184
17.80000000,0.03825981,-0.11893895
17.90000000,0.03772345,-0.11673692
18.00000000,0.03741723,-0.11579419
18.10000000,0.03613262,-0.11516043
18.20000000,0.03441712,-0.11348669
18.30000000,0.03398566,-0.11143215
18.40000000,0.03382558,-0.11055390
18.50000000,0.03274384,-0.11002090
18.60000000,0.03117314,-0.10856431
18.70000000,0.03075727,-0.10660522
18.80000000,0.03072703,-0.10574397
18.90000000,0.02987630,-0.10530680
19.00000000,0.02842619,-0.10410708
19.10000000,0.02792621,-0.10222710
19.20000000,0.02802166,-0.10130523
19.30000000,0.02740878,-0.10094881
19.40000000,0.02611132,-0.10004044
19.50000000,0.02545344,-0.09827458
19.60000000,0.02562868,-0.09722265
19.70000000,0.02527903,-0.09689934
19.80000000,0.02415313,-0.09627157
19.90000000,0.02330705,-0.09471108
20.00000000,0.02345731,-0.09348480
20.10000000,0.02337218,-0.09311815
20.20000000,0.02250564,-0.09273983
20.30000000,0.02149939,-0.09149758
20.40000000,0.02148178,-0.09009743
20.50000000,0.02161681,-0.08958596
20.60000000,0.02106411,-0.08936847
20.70000000,0.02003107,-0.08853499
20.80000000,0.01970380,-0.08709019
20.90000000,0.01996509,-0.08632476
21.00000000,0.01974597,-0.08614417
21.10000000,0.01887169,-0.08569921
21.20000000,0.01817491,-0.08444411
21.30000000,0.01836038,-0.08336924
21.40000000,0.01846042,-0.08307311
21.50000000,0.01789847,-0.08289382
21.60000000,0.01700878,-0.08205325
21.70000000,0.01686057,-0.08078875
21.80000000,0.01715821,-0.08020831
21.90000000,0.01696739,-0.08010113
22.00000000,0.01619500,-0.07972124
22.10000000,0.01560485,-0.07861661
22.20000000,0.01580426,-0.07764279
22.30000000,0.01596173,-0.07739015
22.40000000,0.01553189,-0.07728977
22.50000000,0.01474236,-0.07665432
22.60000000,0.01451678,-0.07550105
22.70000000,0.01483781,-0.07487729
22.80000000,0.01481472,-0.07478824
22.90000000,0.01423071,-0.07459187
23.00000000,0.01356127,-0.07374325
23.10000000,0.01362626,-0.07274072
23.20000000,0.01390737,-0.07237475
23.30000000,0.01373934,-0.07234378
23.40000000,0.01307181,-0.07202116
23.50000000,0.01260054,-0.07106775
23.60000000,0.01281253,-0.07024823
23.70000000,0.01303342,-0.07004626
23.80000000,0.01274417,-0.07002472
23.90000000,0.01207897,-0.06960236
24.00000000,0.01177861,-0.06863142
24.10000000,0.01207258,-0.06797665
24.20000000,0.01221863,-0.06786344
24.30000000,0.01186698,-0.06783450
24.40000000,0.01123590,-0.06734741
24.50000000,0.01104753,-0.06641242
24.60000000,0.01136350,-0.06585970
24.70000000,0.01146200,-0.06581257
24.80000000,0.01109686,-0.06577515
24.90000000,0.01049507,-0.06525627
25.00000000,0.01038136,-0.06436638
25.10000000,0.01069779,-0.06387840
25.20000000,0.01079481,-0.06385785
25.30000000,0.01041941,-0.06381550
25.40000000,0.00986134,-0.06333036
25.50000000,0.00973840,-0.06248139
25.60000000,0.01005728,-0.06201110
25.70000000,0.01017263,-0.06199049
25.80000000,0.00985002,-0.06198983
25.90000000,0.00929502,-0.06154022
26.00000000,0.00914363,-0.06074773
26.10000000,0.00945142,-0.06025017
26.20000000,0.00960452,-0.06019844
26.30000000,0.00935506,-0.06023535
26.40000000,0.00883766,-0.05990924
26.50000000,0.00859033,-0.05915659
26.60000000,0.00885916,-0.05859263
26.70000000,0.00908629,-0.05849920
26.80000000,0.00891153,-0.05856954
26.90000000,0.00843748,-0.05835553
27.00000000,0.00810037,-0.05769379
27.10000000,0.00829137,-0.05705046
27.20000000,0.00855414,-0.05687709
27.30000000,0.00851436,-0.05695428
27.40000000,0.00811935,-0.05686632
27.50000000,0.00768025,-0.05633712
27.60000000,0.00772082,-0.05564493
27.70000000,0.00803603,-0.05534320
27.80000000,0.00811950,-0.05538494
27.90000000,0.00784750,-0.05541438
28.00000000,0.00738523,-0.05507387
28.10000000,0.00721855,-0.05440255
28.20000000,0.00747210,-0.05393021
28.30000000,0.00769912,-0.05387619
28.40000000,0.00758166,-0.05396949
28.50000000,0.00717234,-0.05382108
28.60000000,0.00683833,-0.05327727
28.70000000,0.00694494,-0.05267126
28.80000000,0.00723334,-0.05244740
28.90000000,0.00731319,-0.05250091
29.00000000,0.00703522,-0.05253207
29.10000000,0.00659751,-0.05222909
29.20000000,0.00646561,-0.05161318
29.30000000,0.00668849,-0.05116426
29.40000000,0.00692502,-0.05109807
29.50000000,0.00685800,-0.05118158
29.60000000,0.00653172,-0.05112091
29.70000000,0.00615465,-0.05069854
29.80000000,0.00618467,-0.05009615
29.90000000,0.00644410,-0.04980050
30.00000000,0.00660401,-0.04982383
30.10000000,0.00645127,-0.04990031
30.20000000,0.00607168,-0.04975084
30.30000000,0.00579156,-0.04925365
30.40000000,0.00591334,-0.04872134
30.50000000,0.00618209,-0.04853497
30.60000000,0.00628730,-0.04859091
30.70000000,0.00606313,-0.04865541
30.80000000,0.00568437,-0.04843938
30.90000000,0.00548426,-0.04793459
31.00000000,0.00564951,-0.04746318
31.10000000,0.00589936,-0.04733860
31.20000000,0.00598506,-0.04739709
31.30000000,0.00574313,-0.04745458
31.40000000,0.00538393,-0.04720948
31.50000000,0.00519500,-0.04671799
31.60000000,0.00537681,-0.04627287
31.70000000,0.00563385,-0.04615880
31.80000000,0.00568448,-0.04624341
31.90000000,0.00546971,-0.04630990
32.00000000,0.00510240,-0.04607569
32.10000000,0.00493466,-0.04559582
32.20000000,0.00512101,-0.04516229
32.30000000,0.00535302,-0.04505041
32.40000000,0.00543679,-0.04512574
32.50000000,0.00523212,-0.04520590
32.60000000,0.00490498,-0.04499521
32.70000000,0.00469771,-0.04456743
32.80000000,0.00482914,-0.04410044
32.90000000,0.00509093,-0.04397272
33.00000000,0.00519582,-0.04404139
33.10000000,0.00504395,-0.04411367
33.20000000,0.00471193,-0.04399831
33.30000000,0.00447402,-0.04361638
33.40000000,0.00454777,-0.04316077
33.50000000,0.00478069,-0.04292072
33.60000000,0.00495728,-0.04296620
33.70000000,0.00486572,-0.04307557
33.80000000,0.00458702,-0.04302279
33.90000000,0.00429919,-0.04273052
34.00000000,0.00426521,-0.04227552
34.10000000,0.00445943,-0.04197308
34.20000000,0.00467975,-0.04192735
34.30000000,0.00471394,-0.04200970
34.40000000,0.00451568,-0.04208561
34.50000000,0.00420239,-0.04188812
34.60000000,0.00400955,-0.04150454
34.70000000,0.00415520,-0.04109685
34.80000000,0.00439184,-0.04094578
34.90000000,0.00452729,-0.04100665
35.00000000,0.00444941,-0.04109382
35.10000000,0.00415726,-0.04103034
35.20000000,0.00390195,-0.04076988
35.30000000,0.00385615,-0.04034801
35.40000000,0.00405002,-0.04005704
35.50000000,0.00425134,-0.03999305
35.60000000,0.00431139,-0.04010790
35.70000000,0.00417316,-0.04015546
35.80000000,0.00387518,-0.04005039
35.90000000,0.00366721,-0.03969474
36.00000000,0.00371477,-0.03930400
36.10000000,0.00393404,-0.03908372
36.20000000,0.00410332,-0.03909675
36.30000000,0.00412691,-0.03921709
36.40000000,0.00391641,-0.03922528
36.50000000,0.00363289,-0.03908717
36.60000000,0.00346188,-0.03874571
36.70000000,0.00356744,-0.03838161
36.80000000,0.00379343,-0.03818705
36.90000000,0.00395171,-0.03821619
37.00000000,0.00392153,-0.03833233
37.10000000,0.00372333,-0.03835550
37.20000000,0.00345084,-0.03821066
37.30000000,0.00329924,-0.03779609
37.40000000,0.00342513,-0.03751284
37.50000000,0.00361944,-0.03734657
37.60000000,0.00375876,-0.03735737
37.70000000,0.00376353,-0.03746066
37.80000000,0.00356862,-0.03748843
37.90000000,0.00330970,-0.03734396
38.00000000,0.00314827,-0.03699410
38.10000000,0.00324599,-0.03666559
38.20000000,0.00344864,-0.03650579
38.30000000,0.00360062,-0.03653105
38.40000000,0.00360936,-0.03660847
38.50000000,0.00342653,-0.03666909
38.60000000,0.00318981,-0.03654674
38.70000000,0.00302395,-0.03626285
38.80000000,0.00304754,-0.03590185
38.90000000,0.00326018,-0.03573764
39.00000000,0.00342209,-0.03568588
39.10000000,0.00348381,-0.03577075
39.20000000,0.00335835,-0.03585642
39.30000000,0.00311106,-0.03578991
39.40000000,0.00293788,-0.03557017
39.50000000,0.00289340,-0.03524263
39.60000000,0.00304521,-0.03495587
39.70000000,0.00324385,-0.03487698
39.80000000,0.00330372,-0.03496822
39.90000000,0.00327543,-0.03501500
40.00000000,0.00308668,-0.03506810
40.10000000,0.00286293,-0.03485943
40.20000000,0.00274746,-0.03458212
40.30000000,0.00279800,-0.03430732
40.40000000,0.00297131,-0.03416024
40.50000000,0.00314786,-0.03412140
40.60000000,0.00323024,-0.03422863
40.70000000,0.00307680,-0.03433089
40.80000000,0.00283593,-0.03427646
40.90000000,0.00263492,-0.03408753
41.00000000,0.00261876,-0.03373597
41.10000000,0.00271857,-0.03347885
41.20000000,0.00292399,-0.03334749
41.30000000,0.00306227,-0.03339313
41.40000000,0.00304377,-0.03353103
41.50000000,0.00290383,-0.03355008
41.60000000,0.00267079,-0.03349956
41.70000000,0.00254039,-0.03326692
41.80000000,0.00249606,-0.03294854
41.90000000,0.00264309,-0.03270391
42.00000000,0.00281891,-0.03263888
42.10000000,0.00291635,-0.03267327
42.20000000,0.00289793,-0.03280003
42.30000000,0.00275553,-0.03282628
42.40000000,0.00256315,-0.03274122
42.50000000,0.00234833,-0.03255510
42.60000000,0.00240118,-0.03224105
42.70000000,0.00250437,-0.03199744
42.80000000,0.00271315,-0.03193244
42.90000000,0.00282272,-0.03194739
43.00000000,0.00281035,-0.03206027
43.10000000,0.00269608,-0.03211146
43.20000000,0.00249946,-0.03207114
43.30000000,0.00228034,-0.03189263
43.40000000,0.00226186,-0.03158612
43.50000000,0.00239558,-0.03136251
43.60000000,0.00253294,-0.03124507
43.70000000,0.00268220,-0.03125830
43.80000000,0.00269753,-0.03132168
43.90000000,0.00259441,-0.03140838
44.00000000,0.00242384,-0.03145312
44.10000000,0.00224712,-0.03125622
44.20000000,0.00214491,-0.03101142
44.30000000,0.00224976,-0.03075639
44.40000000,0.00236401,-0.03058456
44.50000000,0.00254444,-0.03053147
44.60000000,0.00261258,-0.03061654
44.70000000,0.00257225,-0.03070291
44.80000000,0.00239463,-0.03071678
44.90000000,0.00221125,-0.03069563
45.00000000,0.00205051,-0.03048580
45.10000000,0.00203898,-0.03019129
45.20000000,0.00214525,-0.02999330
45.30000000,0.00233086,-0.02987457
45.40000000,0.00242119,-0.02988335
45.50000000,0.00250812,-0.02997612
45.60000000,0.00243878,-0.03004586
45.70000000,0.00224070,-0.03007392
45.80000000,0.00211225,-0.02996930
45.90000000,0.00196626,-0.02974376
46.00000000,0.00199652,-0.02951806
46.10000000,0.00209242,-0.02927162
46.20000000,0.00224706,-0.02922198
46.30000000,0.00234036,-0.02927842
46.40000000,0.00241020,-0.02932504
46.50000000,0.00234585,-0.02942521
46.60000000,0.00217656,-0.02945029
46.70000000,0.00199254,-0.02927373
46.80000000,0.00188904,-0.02913285
46.90000000,0.00185331,-0.02884986
47.00000000,0.00196812,-0.02863649
47.10000000,0.00215409,-0.02860061
47.20000000,0.00223632,-0.02861186
47.30000000,0.00232337,-0.02866450
47.40000000,0.00223592,-0.02879207
47.50000000,0.00209948,-0.02878923
47.60000000,0.00192364,-0.02872021
47.70000000,0.00177896,-0.02851209
47.80000000,0.00179026,-0.02826001
47.90000000,0.00187907,-0.02803479
48.00000000,0.00201184,-0.02793153
48.10000000,0.00211216,-0.02792803
48.20000000,0.00224626,-0.02802718
48.30000000,0.00218836,-0.02812777
48.40000000,0.00205741,-0.02821386
48.50000000,0.00187861,-0.02813116
48.60000000,0.00179272,-0.02800135
48.70000000,0.00171326,-0.02781244
48.80000000,0.00173386,-0.02751947
48.90000000,0.00187012,-0.02739422
49.00000000,0.00195587,-0.02733324
49.10000000,0.00207882,-0.02737378
49.20000000,0.00218504,-0.02744247
49.30000000,0.00203888,-0.02753953
49.40000000,0.00193894,-0.02755961
49.50000000,0.00176799,-0.02744711
49.60000000,0.00162535,-0.02730899
49.70000000,0.00158569,-0.02705494
49.80000000,0.00171952,-0.02693259
49.90000000,0.00186804,-0.02678294
50.00000000,0.00193545,-0.02676838
50.10000000,0.00202900,-0.02679455
50.20000000,0.00207428,-0.02688249
50.30000000,0.00193789,-0.02694905
50.40000000,0.00184192,-0.02692187
50.50000000,0.00169929,-0.02687845
50.60000000,0.00157875,-0.02667822
50.70000000,0.00152159,-0.02654504
50.80000000,0.00153912,-0.02629079
50.90000000,0.00177339,-0.02621331
51.00000000,0.00184782,-0.02615328
51.10000000,0.00193666,-0.02618056
51.20000000,0.00195411,-0.02623954
51.30000000,0.00197658,-0.02635107
51.40000000,0.00181114,-0.02638524
51.50000000,0.00161312,-0.02634250
51.60000000,0.00151439,-0.02611495
51.70000000,0.00145863,-0.02595544
51.80000000,0.00147715,-0.02579598
51.90000000,0.00157503,-0.02560232
52.00000000,0.00172590,-0.02557482
52.10000000,0.00179695,-0.02555134
52.20000000,0.00191029,-0.02559243
52.30000000,0.00186155,-0.02573857
52.40000000,0.00177939,-0.02576572
52.50000000,0.00166505,-0.02572932
52.60000000,0.00147495,-0.02563519
52.70000000,0.00145051,-0.02553092
52.80000000,0.00138653,-0.02536624
52.90000000,0.00147252,-0.02510991
53.00000000,0.00153586,-0.02497901
53.10000000,0.00166072,-0.02499508
53.20000000,0.00177689,-0.02496218
53.30000000,0.00181999,-0.02510531
53.40000000,0.00178324,-0.02514383
53.50000000,0.00166391,-0.02516409
53.60000000,0.00160087,-0.02519297
53.70000000,0.00144028,-0.02514535
53.80000000,0.00130707,-0.02496853
53.90000000,0.00134748,-0.02474061
54.00000000,0.00139064,-0.02458228
54.10000000,0.00148719,-0.02449039
54.20000000,0.00156112,-0.02443208
54.30000000,0.00168579,-0.02445604
54.40000000,0.00168288,-0.02451590
54.50000000,0.00172918,-0.02459477
54.60000000,0.00162385,-0.02460007
54.70000000,0.00153235,-0.02465356
54.80000000,0.00140854,-0.02455800
54.90000000,0.00131262,-0.02447788
55.00000000,0.00126589,-0.02430108
55.10000000,0.00130943,-0.02406887
55.20000000,0.00130188,-0.02397123
55.30000000,0.00142409,-0.02387459
55.40000000,0.00154952,-0.02394667
55.50000000,0.00162224,-0.02396071
55.60000000,0.00165057,-0.02395316
55.70000000,0.00163671,-0.02408350
55.80000000,0.00148686,-0.02409182
55.90000000,0.00144100,-0.02408555
56.00000000,0.00128309,-0.02397552
56.10000000,0.00118048,-0.02383448
56.20000000,0.00122413,-0.02365698
56.30000000,0.00112105,-0.02352525
56.40000000,0.00137254,-0.02330811
56.50000000,0.00139297,-0.02338846
56.60000000,0.00148524,-0.02343673
56.70000000,0.00160751,-0.02332996
56.80000000,0.00154751,-0.02338124
56.90000000,0.00150197,-0.02348045
57.00000000,0.00146304,-0.02355494
57.10000000,0.00134348,-0.02357706
57.20000000,0.00122268,-0.02343516
57.30000000,0.00117667,-0.02327012
57.40000000,0.00114599,-0.02308199
57.50000000,0.00113315,-0.02293875
57.60000000,0.00119109,-0.02295631
57.70000000,0.00128172,-0.02280818
57.80000000,0.00142823,-0.02280351
57.90000000,0.00148028,-0.02277743
58.00000000,0.00152256,-0.02292030
58.10000000,0.00148286,-0.02292621
58.20000000,0.00142124,-0.02291464
58.30000000,0.00136584,-0.02297305
58.40000000,0.00115280,-0.02295530
58.50000000,0.00112109,-0.02281888
58.60000000,0.00112054,-0.02272163
58.70000000,0.00097659,-0.02252120
58.80000000,0.00106155,-0.02236868
58.90000000,0.00120709,-0.02238664
59.00000000,0.00123923,-0.02215179
59.10000000,0.00137423,-0.02224238
59.20000000,0.00152870,-0.02223700
59.30000000,0.00149274,-0.02237376
59.40000000,0.00149303,-0.02238908
59.50000000,0.00129415,-0.02250871
59.60000000,0.00128885,-0.02245005
59.70000000,0.00119193,-0.02239213
59.80000000,0.00108366,-0.02241176
59.90000000,0.00101122,-0.02220546
60.00000000,0.00100915,-0.02196512
60.10000000,0.00102492,-0.02190470
60.20000000,0.00112029,-0.02181712
60.30000000,0.00122013,-0.02175084
60.40000000,0.00122591,-0.02182553
60.50000000,0.00144594,-0.02180082
60.60000000,0.00142028,-0.02173088
60.70000000,0.00135670,-0.02184481
60.80000000,0.00141063,-0.02182572
60.90000000,0.00128064,-0.02188593
61.00000000,0.00120881,-0.02190838
61.10000000,0.00111956,-0.02181000
61.20000000,0.00106493,-0.02172266
61.30000000,0.00098267,-0.02157585
61.40000000,0.00092142,-0.02145757
61.50000000,0.00101725,-0.02138542
61.60000000,0.00113862,-0.02122362
61.70000000,0.00107462,-0.02124427
61.80000000,0.00118360,-0.02111780
61.90000000,0.00118979,-0.02117240
62.00000000,0.00133253,-0.02115612
62.10000000,0.00128470,-0.02123780
62.20000000,0.00130816,-0.02130371
62.30000000,0.00126063,-0.02135871
62.40000000,0.00113916,-0.02139028
62.50000000,0.00102349,-0.02129489
62.60000000,0.00095283,-0.02109609
62.70000000,0.00094833,-0.02121197
62.80000000,0.00093741,-0.02095750
62.90000000,0.00091043,-0.02088571
63.00000000,0.00106645,-0.02077645
63.10000000,0.00100515,-0.02064726
63.20000000,0.00117352,-0.02069520
63.30000000,0.00112929,-0.02074179
63.40000000,0.00127078,-0.02067163
63.50000000,0.00130572,-0.02068641
63.60000000,0.00137938,-0.02075232
63.70000000,0.00124483,-0.02079414
63.80000000,0.00118666,-0.02086323
63.90000000,0.00110171,-0.02088963
64.00000000,0.00099122,-0.02078097
64.10000000,0.00091905,-0.02077477
64.20000000,0.00085467,-0.02069857
64.30000000,0.00080038,-0.02042376
64.40000000,0.00078371,-0.02041785
64.50000000,0.00093786,-0.02031146
64.60000000,0.00090814,-0.02024688
64.70000000,0.00105522,-0.02017250
64.80000000,0.00108715,-0.02006538
64.90000000,0.00123505,-0.02015136
65.00000000,0.00120969,-0.02013780
65.10000000,0.00137480,-0.02024271
65.20000000,0.00119160,-0.02024600
65.30000000,0.00118893,-0.02025604
65.40000000,0.00115621,-0.02024296
65.50000000,0.00101573,-0.02034135
65.60000000,0.00098592,-0.02027912
65.70000000,0.00092014,-0.02008246
65.80000000,0.00073105,-0.02018486
65.90000000,0.00078372,-0.02002717
66.00000000,0.00077014,-0.01976173
66.10000000,0.00087479,-0.01979238
66.20000000,0.00092918,-0.01963675
66.30000000,0.00099967,-0.01959840
66.40000000,0.00101518,-0.01962136
66.50000000,0.00111411,-0.01950989
66.60000000,0.00110073,-0.01952748
66.70000000,0.00120675,-0.01961188
66.80000000,0.00114620,-0.01965962
66.90000000,0.00112255,-0.01973664
67.00000000,0.00116632,-0.01969735
67.10000000,0.00105057,-0.01977096
67.20000000,0.00095909,-0.01967759
67.30000000,0.00098520,-0.01969107
67.40000000,0.00078159,-0.01956244
67.50000000,0.00084166,-0.01949397
67.60000000,0.00078061,-0.01947699
67.70000000,0.00076804,-0.01936755
67.80000000,0.00076481,-0.01928185
67.90000000,0.00081335,-0.01908540
68.00000000,0.00090768,-0.01907524
68.10000000,0.00097912,-0.01901451
68.20000000,0.00101814,-0.01900230
68.30000000,0.00106024,-0.01900569
68.40000000,0.00114451,-0.01909045
68.50000000,0.00106542,-0.01910777
68.60000000,0.00110096,-0.01902958
68.70000000,0.00116803,-0.01920602
68.80000000,0.00099528,-0.01920460
68.90000000,0.00100289,-0.01914016
69.00000000,0.00098760,-0.01916170
69.10000000,0.00087695,-0.01913125
69.20000000,0.00080541,-0.01903809
69.30000000,0.00072659,-0.01905845
69.40000000,0.00055855,-0.01902085
69.50000000,0.00070378,-0.01884701
69.60000000,0.00077350,-0.01870097
69.70000000,0.00074769,-0.01863830
69.80000000,0.00071733,-0.01849121
69.90000000,0.00085011,-0.01855196
70.00000000,0.00090591,-0.01838249
70.10000000,0.00090408,-0.01841440
70.20000000,0.00099300,-0.01847597
70.30000000,0.00104432,-0.01849507
70.40000000,0.00110554,-0.01851891
70.50000000,0.00099497,-0.01859808
70.60000000,0.00102092,-0.01857551
70.70000000,0.00091502,-0.01863507
70.80000000,0.00091021,-0.01861810
70.90000000,0.00091097,-0.01887722
71.00000000,0.00076375,-0.01872597
71.10000000,0.00075054,-0.01853775
71.20000000,0.00073043,-0.01852632
71.30000000,0.00065556,-0.01847125
71.40000000,0.00058869,-0.01836023
71.50000000,0.00065055,-0.01823082
71.60000000,0.00056210,-0.01823153
71.70000000,0.00060047,-0.01811474
71.80000000,0.00067767,-0.01800937
71.90000000,0.00075088,-0.01800849
72.00000000,0.00078070,-0.01797814
72.10000000,0.00097943,-0.01796802
72.20000000,0.00096049,-0.01784489
72.30000000,0.00096544,-0.01788565
72.40000000,0.00094829,-0.01783860
72.50000000,0.00100842,-0.01805894
72.60000000,0.00099890,-0.01803803
72.70000000,0.00091968,-0.01818198
72.80000000,0.00097746,-0.01807931
72.90000000,0.00096503,-0.01808967
73.00000000,0.00073932,-0.01811156
73.10000000,0.00080094,-0.01808275
73.20000000,0.00060213,-0.01804575
73.30000000,0.00058784,-0.01807197
73.40000000,0.00074221,-0.01784653
73.50000000,0.00062042,-0.01789346
73.60000000,0.00051778,-0.01769036
73.70000000,0.00068704,-0.01753815
73.80000000,0.00055381,-0.01754615
73.90000000,0.00061638,-0.01754107
74.00000000,0.00069602,-0.01760736
74.10000000,0.00082617,-0.01743863
74.20000000,0.00075105,-0.01739037
74.30000000,0.00084311,-0.01735186
74.40000000,0.00088297,-0.01734515
74.50000000,0.00092873,-0.01734269
74.60000000,0.00098681,-0.01742559
74.70000000,0.00098394,-0.01734071
74.80000000,0.00097405,-0.01748224
74.90000000,0.00098079,-0.01740721
75.00000000,0.00092442,-0.01751841
75.10000000,0.00090024,-0.01749034
75.20000000,0.00085737,-0.01760528
75.30000000,0.00063356,-0.01756416
75.40000000,0.00067706,-0.01753006
75.50000000,0.00064197,-0.01740816
75.60000000,0.00069907,-0.01741642
75.70000000,0.00058362,-0.01725077
75.80000000,0.00063596,-0.01728827
75.90000000,0.00047969,-0.01724821
76.00000000,0.00062618,-0.01709759
76.10000000,0.00057644,-0.01710047
76.20000000,0.00047382,-0.01706001
76.30000000,0.00059925,-0.01680395
76.40000000,0.00070018,-0.01685674
76.50000000,0.00065603,-0.01682648
76.60000000,0.00080217,-0.01674074
76.70000000,0.00079943,-0.01676491
76.80000000,0.00083911,-0.01673967
76.90000000,0.00082538,-0.01673541
77.00000000,0.00094859,-0.01675253
77.10000000,0.00086827,-0.01677695
77.20000000,0.00082889,-0.01691165
77.30000000,0.00094506,-0.01680560
77.40000000,0.00074669,-0.01689293
77.50000000,0.00095250,-0.01672345
77.60000000,0.00078851,-0.01680256
77.70000000,0.00079514,-0.01712449
77.80000000,0.00090847,-0.01684916
77.90000000,0.00071381,-0.01691476
78.00000000,0.00085625,-0.01684430
78.10000000,0.00061785,-0.01695136
78.20000000,0.00051830,-0.01685918
78.30000000,0.00050395,-0.01669092
78.40000000,0.00042384,-0.01670922
78.50000000,0.00051094,-0.01657827
78.60000000,0.00042886,-0.01656134
78.70000000,0.00059889,-0.01646096
78.80000000,0.00049442,-0.01635544
78.90000000,0.00052092,-0.01637262
79.00000000,0.00052483,-0.01641493
79.10000000,0.00035580,-0.01627944
79.20000000,0.00054927,-0.01618361
79.30000000,0.00063169,-0.01612333
79.40000000,0.00063967,-0.01614742
79.50000000,0.00064313,-0.01614975
79.60000000,0.00069969,-0.01604005
79.70000000,0.00095317,-0.01626733
79.80000000,0.00085533,-0.01614407
79.90000000,0.00067048,-0.01612944
80.00000000,0.00084431,-0.01615507
80.10000000,0.00076080,-0.01631804
80.20000000,0.00073222,-0.01625749
80.30000000,0.00100169,-0.01631383
80.40000000,0.00087443,-0.01627311
80.50000000,0.00087480,-0.01621668
80.60000000,0.00083773,-0.01629713
80.70000000,0.00050772,-0.01619545
80.80000000,0.00067256,-0.01617973
80.90000000,0.00065510,-0.01632003
81.00000000,0.00066964,-0.01614190
81.10000000,0.00062061,-0.01621221
81.20000000,0.00044240,-0.01616919
81.30000000,0.00062181,-0.01626991
81.40000000,0.00026399,-0.01599214
81.50000000,0.00048006,-0.01607488
81.60000000,0.00027629,-0.01588371
81.70000000,0.00038064,-0.01598552
81.80000000,0.00038609,-0.01573628
81.90000000,0.00036696,-0.01584033
82.00000000,0.00050890,-0.01567096
82.10000000,0.00057351,-0.01568511
82.20000000,0.00047157,-0.01558509
82.30000000,0.00050485,-0.01563581
82.40000000,0.00058070,-0.01571771
82.50000000,0.00059194,-0.01553615
82.60000000,0.00075024,-0.01555724
82.70000000,0.00067076,-0.01551701
82.80000000,0.00051856,-0.01546272
82.90000000,0.00071551,-0.01552410
83.00000000,0.00058957,-0.01547893
83.10000000,0.00093849,-0.01557526
83.20000000,0.00075235,-0.01538802
83.30000000,0.00074095,-0.01543875
83.40000000,0.00081966,-0.01541927
83.50000000,0.00088847,-0.01552461
83.60000000,0.00083275,-0.01540628
83.70000000,0.00086820,-0.01544891
83.80000000,0.00088883,-0.01550814
83.90000000,0.00078525,-0.01549075
84.00000000,0.00071022,-0.01538459
84.10000000,0.00090443,-0.01558943
84.20000000,0.00073853,-0.01574052
84.30000000,0.00069363,-0.01560141
84.40000000,0.00050913,-0.01552025
84.50000000,0.00044196,-0.01565828
84.60000000,0.00042297,-0.01547778
84.70000000,0.00031955,-0.01549681
84.80000000,0.00038536,-0.01563385
84.90000000,0.00034177,-0.01557026
85.00000000,0.00039650,-0.01538065
85.10000000,0.00045019,-0.01537044
85.20000000,0.00045516,-0.01513340
85.30000000,0.00045430,-0.01523367
85.40000000,0.00046066,-0.01548733
85.50000000,0.00014863,-0.01511616
85.60000000,0.00022213,-0.01504873
85.70000000,0.00036698,-0.01515494
85.80000000,0.00034592,-0.01519580
85.90000000,0.00045764,-0.01491514
86.00000000,0.00045645,-0.01508718
86.10000000,0.00032962,-0.01498086
86.20000000,0.00040743,-0.01480919
86.30000000,0.00030419,-0.01465550
86.40000000,0.00050709,-0.01470727
86.50000000,0.00048570,-0.01486405
86.60000000,0.00037638,-0.01476435
86.70000000,0.00042206,-0.01478303
86.80000000,0.00067436,-0.01477421
86.90000000,0.00056158,-0.01473044
87.00000000,0.00059037,-0.01466746
87.10000000,0.00065489,-0.01466395
87.20000000,0.00072285,-0.01468156
87.30000000,0.00086684,-0.01464171
87.40000000,0.00069744,-0.01449817
87.50000000,0.00066803,-0.01477513
87.60000000,0.00066161,-0.01464927
87.70000000,0.00071787,-0.01458865
87.80000000,0.00054492,-0.01444393
87.90000000,0.00080456,-0.01472980
88.00000000,0.00053534,-0.01451823
88.10000000,0.00087994,-0.01463173
88.20000000,0.00068969,-0.01466602
88.30000000,0.00085007,-0.01450553
88.40000000,0.00047199,-0.01451219
88.50000000,0.00061233,-0.01484525
88.60000000,0.00076079,-0.01467209
88.70000000,0.00072601,-0.01473005
88.80000000,0.00066768,-0.01468369
88.90000000,0.00102589,-0.01482301
89.00000000,0.00059299,-0.01490827
89.10000000,0.00074420,-0.01463100
89.20000000,0.00078380,-0.01455458
89.30000000,0.00063970,-0.01452831
89.40000000,0.00059817,-0.01452087
89.50000000,0.00074123,-0.01454146
89.60000000,0.00035298,-0.01464991
89.70000000,0.00042424,-0.01482770
89.80000000,0.00040844,-0.01466478
89.90000000,0.00031825,-0.01446382
90.00000000,0.00035344,-0.01470968
90.10000000,0.00053002,-0.01464078
90.20000000,0.00038460,-0.01458061
90.30000000,0.00043183,-0.01422388
90.40000000,0.00058037,-0.01442516
90.50000000,0.00028301,-0.01442982
90.60000000,0.00046745,-0.01443276
90.70000000,0.00033778,-0.01404103
90.80000000,0.00047807,-0.01430456
90.90000000,0.00033336,-0.01427751
91.00000000,0.00020321,-0.01423589
91.10000000,0.00032670,-0.01423788
91.20000000,0.00027821,-0.01416356
91.30000000,0.00030871,-0.01418504
91.40000000,0.00012368,-0.01417382
91.50000000,0.00024827,-0.01417862
91.60000000,0.00035757,-0.01399658
91.70000000,0.00036921,-0.01406149
91.80000000,0.00030575,-0.01388208
91.90000000,0.00025778,-0.01381627
92.00000000,0.00051895,-0.01375560
92.10000000,0.00035861,-0.01370670
92.20000000,0.00031053,-0.01379177
92.30000000,0.00024808,-0.01367649
92.40000000,0.00041823,-0.01387357
92.50000000,0.00047421,-0.01376876
92.60000000,0.00050793,-0.01355404
92.70000000,0.00049187,-0.01361766
92.80000000,0.00044714,-0.01387519
92.90000000,0.00037665,-0.01360958
93.00000000,0.00026584,-0.01378638
93.10000000,0.00052145,-0.01348428
93.20000000,0.00054752,-0.01389685
93.30000000,0.00051997,-0.01367252
93.40000000,0.00027150,-0.01355796
93.50000000,0.00060582,-0.01347486
93.60000000,0.00055046,-0.01365365
93.70000000,0.00063199,-0.01352194
93.80000000,0.00055216,-0.01352863
93.90000000,0.00050645,-0.01367299
94.00000000,0.00044095,-0.01351818
94.10000000,0.00052481,-0.01361785
94.20000000,0.00048884,-0.01361674
94.30000000,0.00059783,-0.01345287
94.40000000,0.00052826,-0.01332621
94.50000000,0.00052487,-0.01343908
94.60000000,0.00034384,-0.01324711
94.70000000,0.00059090,-0.01350001
94.80000000,0.00075378,-0.01355024
94.90000000,0.00059832,-0.01340846
95.00000000,0.00052878,-0.01337241
95.10000000,0.00055127,-0.01320612
95.20000000,0.00047840,-0.01331591
95.30000000,0.00065189,-0.01337780
95.40000000,0.00064874,-0.01342272
95.50000000,0.00063353,-0.01349533
95.60000000,0.00064051,-0.01340907
95.70000000,0.00060410,-0.01330110
95.80000000,0.00064859,-0.01324021
95.90000000,0.00071159,-0.01332264
96.00000000,0.00068001,-0.01333500
96.10000000,0.00047429,-0.01330465
96.20000000,0.00077572,-0.01309959
96.30000000,0.00059943,-0.01325020
96.40000000,0.00085737,-0.01349233
96.50000000,0.00061992,-0.01362473
96.60000000,0.00060122,-0.01346385
96.70000000,0.00055484,-0.01357889
96.80000000,0.00036799,-0.01301361
96.90000000,0.00110105,-0.01334482
97.00000000,0.00066389,-0.01328649
97.10000000,0.00080580,-0.01296175
97.20000000,0.00062768,-0.01328779
97.30000000,0.00038730,-0.01321539
97.40000000,0.00049321,-0.01323616
97.50000000,0.00133461,-0.01322995
97.60000000,0.00051326,-0.01334204
97.70000000,0.00046106,-0.01320103
97.80000000,0.00046226,-0.01307360
97.90000000,0.00092322,-0.01320408
98.00000000,0.00059314,-0.01267906
98.10000000,0.00072847,-0.01292761
98.20000000,0.00091552,-0.01298570
98.30000000,0.00028257,-0.01277666
98.40000000,0.00092470,-0.01355578
98.50000000,0.00101738,-0.01326834
98.60000000,0.00052206,-0.01353789
98.70000000,0.00043002,-0.01326877
98.80000000,0.00073123,-0.01313124
98.90000000,-0.00003692,-0.01291556
99.00000000,0.00054053,-0.01291043
99.10000000,0.00081581,-0.01287266
99.20000000,0.00111144,-0.01292870
99.30000000,0.00048962,-0.01309655
99.40000000,0.00057758,-0.01323653
99.50000000,0.00123792,-0.01295540
99.60000000,0.00086460,-0.01346590
99.70000000,0.00084720,-0.01295908
99.80000000,0.00078136,-0.01304315
99.90000000,0.00139233,-0.01281295
